2theta chi X Y I
78.330847   -1.809860   1027.110000   1293.280000   70931.270
64.990882   -23.842938   1379.170000   1553.580000   51933.840
69.179561   -18.562644   1288.110000   1460.160000   22795.070
105.816518   4.915089   926.220000   872.060000   19489.690
104.173984   25.244744   595.460000   876.440000   19058.790
120.514849   -12.057926   1183.270000   598.920000   17182.880
59.773201   23.546715   626.120000   1661.280000   15825.390
56.011524   9.518718   856.140000   1702.520000   15486.200
82.546981   -38.097935   1672.670000   1258.620000   13318.810
83.744853   -30.103144   1497.400000   1224.700000   13145.990
91.949370   -11.598580   1176.090000   1086.190000   11799.930
81.869284   14.365253   780.270000   1242.530000   11662.160
81.544403   11.292574   828.680000   1246.060000   10727.930
122.716725   11.854674   819.910000   552.840000   10271.900
115.251254   8.383578   873.560000   706.970000   10010.520
54.729385   -5.710914   1085.800000   1725.830000   9107.770
109.242072   -34.031860   1579.390000   754.630000   8515.140
94.762549   -14.162015   1216.490000   1042.280000   8262.020
127.366048   -29.286796   1481.200000   364.840000   6598.440
80.181966   34.972471   399.870000   1297.190000   6505.450
81.534126   27.768819   548.250000   1260.320000   6137.870
83.867396   -24.815448   1396.710000   1217.560000   5781.180
92.378797   -33.760392   1573.490000   1073.130000   5481.590
72.865626   -13.062517   1199.060000   1387.530000   5182.440
120.570879   -22.350770   1352.760000   568.030000   5055.990
97.412431   31.848093   467.050000   984.600000   4950.230
82.014094   22.827258   638.870000   1246.590000   4761.410
96.386476   2.192720   967.150000   1019.900000   4673.940
93.712610   1.502252   977.500000   1060.310000   4649.480
100.367009   19.123113   702.520000   949.880000   4413.680
108.888322   35.688076   383.770000   754.580000   4400.610
98.765101   -18.275897   1283.340000   976.690000   4305.200
133.320447   18.843645   707.200000   261.110000   4170.570
112.918464   -9.328292   1140.930000   748.400000   4160.120
63.946861   19.210700   701.050000   1560.170000   4044.720
92.676962   -40.406042   1730.330000   1063.320000   3856.170
109.826199   6.276331   905.640000   804.810000   3693.430
119.244559   -3.677306   1055.140000   634.640000   3277.590
109.135925   19.069442   703.420000   801.020000   3232.590
98.679381   39.621830   289.690000   945.970000   3125.110
90.009866   -9.985102   1151.050000   1115.850000   3088.730
101.585705   -21.566679   1339.110000   926.870000   2830.160
119.894050   -28.134107   1458.760000   556.690000   2775.350
81.207591   9.171506   861.480000   1250.420000   2670.740
79.345829   38.074767   327.890000   1321.030000   2634.420
113.230658   23.803259   621.540000   713.500000   2612.620
131.925170   -17.763783   1274.860000   306.950000   2377.760
115.190013   -18.105322   1280.510000   691.440000   2278.070
125.701591   -4.216338   1063.250000   497.790000   2195.880
75.120259   -31.251573   1520.650000   1382.650000   2124.740
97.799178   -41.757767   1765.960000   958.470000   2077.070
110.721802   -37.606219   1660.860000   706.310000   2052.310
103.581572   -6.738458   1101.370000   907.290000   1952.150
59.022513   -5.052947   1075.860000   1633.060000   1878.930
91.613133   -28.905390   1473.720000   1088.400000   1877.760
80.927855   -43.691053   1819.620000   1305.460000   1746.380
97.153526   -36.155374   1626.900000   982.640000   1676.950
95.908436   26.287866   576.200000   1016.970000   1646.400
82.069083   19.183898   701.500000   1242.550000   1591.710
105.026428   -26.441732   1426.670000   858.780000   1576.400
63.921721   5.901278   911.320000   1538.140000   1466.190
119.963256   10.470174   841.450000   613.020000   1399.400
125.588802   -14.331406   1219.190000   482.300000   1361.220
124.419544   -34.454448   1588.650000   403.050000   1343.440
64.955427   29.128051   521.920000   1574.920000   1331.830
95.001466   12.445675   810.650000   1039.110000   1277.200
134.781575   1.194558   982.110000   264.380000   1253.580
122.421143   28.334712   537.370000   496.910000   1183.420
93.205697   35.247764   393.710000   1057.160000   1105.270
93.286989   41.332066   245.420000   1050.380000   1055.910
114.263577   -3.335996   1050.010000   728.620000   1019.630
117.255969   39.332969   296.950000   544.570000   943.570
106.456831   29.723329   510.170000   824.170000   887.260
83.363474   -18.431112   1285.920000   1221.220000   860.610
100.576009   -5.993769   1090.080000   954.930000   797.370
111.434267   -39.662222   1711.330000   678.470000   772.050
115.954744   -23.723827   1377.040000   659.840000   708.970
127.520312   14.688167   775.110000   434.930000   706.880
105.801122   15.761917   757.840000   863.720000   703.030
91.720154   1.075733   983.890000   1090.230000   655.210
134.790124   4.967455   925.430000   261.100000   646.940
96.572848   -15.882461   1244.110000   1013.220000   550.970
119.199075   -31.752583   1530.970000   552.130000   492.940
# File created at Wed Jun 14 15:35:46 2023 with IOLaueTools.py
# From: Ge0001.dat
# Calibration parameters
# dd     :   67.9
# xcen     :   1000.0
# ycen     :   1116.0
# xbet     :   0.0
# xgam     :   0.0
# pixelsize     :   0.079142
# ypixelsize     :   0.079142